# Source : https://www.nrcresearchpress.com/doi/pdf/10.1139/v94-093
# Optical properties of poly-HCN and their astronomical applications 
# BISHUN N. KHARE,' CARL SAGAN, AND W. REID THOMPSON  EDWARD T.ARAKAWA, CAROLINE MEISSE, AND PAGE S. TUMINELLO~ 
# wavelength (micron), n, k
0.0373 0.896 0.200
0.0401 0.890 0.218
0.0432 0.885 0.239
0.0475 0.882 0.273
0.0494 0.883 0.289
0.0502 0.884 0.296
0.0506 0.883 0.300
0.0510 0.882 0.304
0.0514 0.881 0.309
0.0523 0.882 0.319
0.0560 0.894 0.367
0.0576 0.900 0.387
0.0593 0.905 0.408
0.0602 0.905 0.420
0.0610 0.906 0.430
0.0616 0.908 0.438
0.0629 0.916 0.454
0.0677 0.959 0.517
0.0750 1.054 0.616
0.0805 1.145 0.690
0.0827 1.198 0.720
0.0838 1.238 0.730
0.0849 1.279 0.725
0.0854 1.296 0.718
0.0866 1.322 0.683
0.0873 1.328 0.670
0.0891 1.343 0.663
0.0904 1.359 0.658
0.0925 1.389 0.650
0.0954 1.429 0.630
0.0969 1.442 0.610
0.0984 1.458 0.620
0.100 1.483 0.610
0.102 1.544 0.620
0.103 1.581 0.600
0.104 1.620 0.552
0.105 1.635 0.501
0.106 1.643 0.459
0.108 1.607 0.349
0.109 1.534 0.274
0.111 1.443 0.327
0.113 1.396 0.348
0.115 1.377 0.406
0.117 1.383 0.449
0.119 1.404 0.480
0.122 1.451 0.502
0.124 1.483 0.500
0.129 1.529 0.457
0.133 1.543 0.428
0.138 1.546 0.400
0.149 1.543 0.362
0.155 1.533 0.352
0.163 1.511 0.352
0.168 1.495 0.360
0.170 1.493 0.390
0.175 1.508 0.421
0.182 1.539 0.437
0.188 1.578 0.477
0.194 1.634 0.477
0.205 1.718 0.432
0.216 1.752 0.352
0.227 1.751 0.307
0.240 1.752 0.280
0.248 1.740 0.245
0.250 1.735 0.244
0.252 1.733 0.245
0.253 1.733 0.244
0.258 1.735 0.264
0.260 1.737 0.272
0.262 1.738 0.278
0.264 1.742 0.286
0.266 1.754 0.286
0.268 1.769 0.292
0.270 1.782 0.291
0.272 1.795 0.292
0.274 1.804 0.282
0.276 1.813 0.273
0.278 1.821 0.263
0.280 1.829 0.247
0.286 1.849 0.200
0.290 1.846 0.165
0.300 1.826 0.114
0.305 1.814 0.102
0.310 1.798 0.0925
0.314 1.787 0.0847
0.320 1.774 0.0775
0.326 1.764 0.0733
0.330 1.758 0.0701
0.336 1.750 0.0662
0.340 1.745 0.0639
0.344 1.740 0.0606
0.350 1.733 0.0569
0.356 1.726 0.0531
0.360 1.722 0.0498
0.366 1.716 0.0480
0.373 1.708 0.0468
0.380 1.702 0.0460
0.400 1.688 0.0450
0.500 1.659 0.0443
0.600 1.650 0.0402
0.700 1.645 0.0388
0.800 1.643 0.0366
0.900 1.642 0.0337
1.000 1.640 0.0322
1.100 1.639 0.0298
1.200 1.637 0.0278
1.300 1.635 0.0265
1.400 1.633 0.0261
1.500 1.632 0.0255
1.600 1.630 0.0243
1.700 1.627 0.0230
1.800 1.624 0.0221
1.900 1.620 0.0214
2.000 1.617 0.0218
2.100 1.612 0.0223
2.200 1.606 0.0228
2.233 1.605 0.0222
2.251 1.604 0.0217
2.276 1.602 0.0211
2.300 1.600 0.0207
2.349 1.595 0.0205
2.398 1.591 0.0206
2.448 1.586 0.0206
2.500 1.579 0.0207
2.541 1.574 0.0208
2.583 1.567 0.0208
2.623 1.560 0.0209
2.656 1.552 0.0210
2.685 1.544 0.0212
2.703 1.538 0.0214
2.715 1.534 0.0217
2.730 1.528 0.0221
2.740 1.522 0.0224
2.778 1.502 0.0308
2.831 1.475 0.0497
2.857 1.452 0.06
2.897 1.433 0.113
2.941 1.446 0.193
2.963 1.477 0.242
2.970 1.493 0.250
2.985 1.528 0.251
2.995 1.548 0.250
3.008 1.575 0.242
3.030 1.593 0.202
3.040 1.589 0.190
3.050 1.582 0.186
3.060 1.574 0.185
3.068 1.567 0.185
3.086 1.566 0.211
3.100 1.579 0.217
3.137 1.608 0.225
3.160 1.625 0.221
3.180 1.639 0.217
3.200 1.651 0.212
3.236 1.674 0.199
3.297 1.693 0.154
3.333 1.688 0.131
3.400 1.669 0.110
3.448 1.653 0.106
3.483 1.645 0.113
3.505 1.645 0.117
3.522 1.645 0.117
3.552 1.641 0.115
3.571 1.638 0.118
3.600 1.640 0.130
3.664 1.652 0.132
3.704 1.660 0.130
3.780 1.668 0.119
3.846 1.668 0.109
3.899 1.669 0.105
3.950 1.668 0.0950
3.999 1.663 0.0892
4.167 1.647 0.0763
4.200 1.642 0.0740
4.300 1.622 0.0700
4.348 1.600 0.0694
4.366 1.592 0.0827
4.396 1.601 0.111
4.428 1.613 0.0981
4.468 1.584 0.0796
4.492 1.587 0.144
4.507 1.583 0.176
4.529 1.573 0.0862
4.558 1.555 0.185
4.589 1.637 0.288
4.598 1.655 0.154
4.651 1.720 0.191
4.696 1.746 0.0830
4.717 1.725 0.0487
4.762 1.682 0.0454
4.800 1.662 0.0430
5.000 1.603 0.0321
5.128 1.563 0.0305
5.263 1.516 0.0387
5.405 1.455 0.0511
5.556 1.344 0.0813
5.627 1.261 0.147
5.650 1.211 0.146
5.687 1.147 0.257
5.770 1.316 0.619
5.780 1.370 0.625
5.790 1.425 0.622
5.821 1.527 0.537
5.848 1.529 0.465
5.870 1.509 0.460
5.876 1.505 0.460
5.904 1.501 0.465
5.935 1.489 0.480
5.961 1.489 0.527
6.000 1.567 0.612
6.010 1.599 0.614
6.020 1.627 0.612
6.048 1.693 0.575
6.078 1.720 0.514
6.098 1.722 0.490
6.107 1.723 0.487
6.138 1.725 0.483
6.173 1.748 0.477
6.199 1.765 0.462
6.230 1.776 0.434
6.262 1.779 0.406
6.289 1.773 0.390
6.293 1.772 0.389
6.369 1.755 0.378
6.391 1.752 0.381
6.424 1.757 0.395
6.457 1.779 0.414
6.485 1.804 0.409
6.500 1.809 0.352
6.525 1.806 0.339
6.579 1.771 0.338
6.600 1.759 0.340
6.630 1.752 0.378
6.650 1.766 0.399
6.667 1.783 0.405
6.700 1.825 0.400
6.738 1.835 0.342
6.750 1.823 0.330
6.780 1.791 0.329
6.812 1.769 0.363
6.850 1.788 0.438
6.887 1.870 0.480
6.965 1.975 0.340
6.993 1.968 0.301
7.042 1.937 0.262
7.143 1.891 0.247
7.160 1.885 0.252
7.194 1.898 0.299
7.250 1.937 0.259
7.330 1.908 0.186
7.353 1.886 0.185
7.370 1.865 0.185
7.380 1.857 0.191
7.440 1.901 0.300
7.469 1.945 0.245
7.500 1.949 0.185
7.514 1.947 0.175
7.547 1.924 0.160
7.600 1.901 0.157
7.847 1.867 0.143
8.051 1.850 0.132
8.197 1.834 0.126
8.265 1.827 0.131
8.368 1.827 0.140
8.434 1.829 0.135
8.475 1.826 0.132
8.547 1.826 0.139
8.610 1.830 0.135
8.750 1.823 0.122
8.969 1.803 0.122
9.050 1.799 0.140
9.100 1.806 0.150
9.174 1.826 0.155
9.200 1.833 0.153
9.322 1.847 0.113
9.400 1.832 0.0900
9.434 1.821 0.0844
9.500 1.802 0.0900
9.537 1.795 0.0967
9.615 1.796 0.113
9.686 1.801 0.111
9.762 1.798 0.101
9.852 1.785 0.0968
9.998 1.771 0.121
10.080 1.776 0.138
10.152 1.789 0.146
10.332 1.810 0.126
10.526 1.804 0.104
10.823 1.785 0.100
10.893 1.788 0.120
10.965 1.791 0.100
11.169 1.780 0.0982
11.500 1.769 0.0980
12.275 1.741 0.0978
12.398 1.732 0.0984
12.500 1.718 0.103
12.651 1.717 0.145
12.710 1.728 0.158
12.781 1.741 0.150
12.903 1.748 0.131
13.072 1.748 0.132
13.189 1.751 0.122
13.333 1.740 0.108
13.793 1.702 0.114
14.388 1.678 0.161
14.577 1.688 0.180
14.706 1.691 0.164
15.152 1.664 0.180
15.385 1.642 0.200
15.625 1.660 0.281
16.000 1.723 0.270
16.260 1.723 0.233
16.500 1.702 0.240
16.754 1.709 0.275
16.949 1.727 0.296
17.000 1.730 0.250
17.219 1.725 0.234
17.699 1.668 0.235
17.900 1.614 0.237
18.232 1.574 0.405
18.500 1.666 0.530
18.868 1.834 0.533
19.000 1.876 0.500
19.679 1.959 0.337
20.000 1.937 0.274
20.500 1.876 0.230
21.277 1.750 0.215
21.500 1.703 0.230
21.751 1.655 0.294
22.139 1.652 0.452
22.600 1.760 0.600
22.727 1.804 0.623
22.900 1.866 0.615
24.310 2.075 0.460
25.000 2.091 0.396
26.000 2.098 0.360
28.177 2.123 0.288
30.000 2.123 0.240
31.790 2.120 0.222
34.000 2.128 0.200
35.423 2.133 0.183
38.000 2.131 0.150
40.000 2.132 0.144

